##Incident particle is a   Muon with M =   105.65839 MeV
#Index =    6:  carbon (amorphous) (C)
#    Absorber with Z =   6,  A = 12.0107(8), density = 2.000
#Sternheimer coef:  a     k=m_s   x_0    x_1    I[eV]   Cbar  delta0
#                0.2024  3.0036 -0.0351  2.4860   78.0  2.9925 0.10
#(Restricted energy loss for Tcut = 0.05 MeV
#Table written with (1X, 1P9E10.3,0PF8.4,f8.5,1pE10.3)          post-Born included in pair prod
#*** Results below 10 MeV are not dependable ***
#     T         p     Ionization  brems     pair     photonuc  Radloss    dE/dx   CSDA Range  delta   beta   dE/dx_R
#   [MeV]    [MeV/c]  -----------------------[MeV cm^2/g]------------------------  [g/cm^2]                [MeV cm^2/g]
 1.000E+00 1.457E+01 2.711E+00 0.000E+00 0.000E+00 5.016E-05 5.016E-05 5.422E+00 2.080E-03  0.0022 0.13661 4.475E+01
 1.200E+00 1.597E+01 3.866E+01 0.000E+00 0.000E+00 5.026E-05 5.026E-05 3.866E+01 6.903E-03  0.0027 0.14944 3.866E+01
 1.400E+00 1.726E+01 3.416E+01 0.000E+00 0.000E+00 5.035E-05 5.035E-05 3.416E+01 1.242E-02  0.0031 0.16119 3.416E+01
 1.700E+00 1.903E+01 2.921E+01 0.000E+00 0.000E+00 5.049E-05 5.049E-05 2.921E+01 2.195E-02  0.0038 0.17725 2.921E+01
 2.000E+00 2.066E+01 2.561E+01 0.000E+00 0.000E+00 5.063E-05 5.063E-05 2.561E+01 3.295E-02  0.0045 0.19186 2.561E+01
 2.500E+00 2.312E+01 2.138E+01 0.000E+00 0.000E+00 5.087E-05 5.087E-05 2.138E+01 5.442E-02  0.0056 0.21376 2.138E+01
 3.000E+00 2.536E+01 1.844E+01 0.000E+00 0.000E+00 5.110E-05 5.110E-05 1.844E+01 7.968E-02  0.0068 0.23336 1.824E+01
 3.500E+00 2.742E+01 1.628E+01 0.000E+00 0.000E+00 5.134E-05 5.134E-05 1.628E+01 1.086E-01  0.0079 0.25120 1.592E+01
 4.000E+00 2.935E+01 1.462E+01 0.000E+00 0.000E+00 5.157E-05 5.157E-05 1.462E+01 1.411E-01  0.0091 0.26763 1.417E+01
 4.500E+00 3.116E+01 1.330E+01 0.000E+00 0.000E+00 5.181E-05 5.181E-05 1.330E+01 1.770E-01  0.0102 0.28290 1.279E+01
 5.000E+00 3.289E+01 1.222E+01 0.000E+00 0.000E+00 5.204E-05 5.204E-05 1.222E+01 2.162E-01  0.0114 0.29720 1.168E+01
 5.500E+00 3.453E+01 1.133E+01 0.000E+00 0.000E+00 5.228E-05 5.228E-05 1.133E+01 2.588E-01  0.0126 0.31066 1.076E+01
 6.000E+00 3.611E+01 1.057E+01 0.000E+00 0.000E+00 5.251E-05 5.251E-05 1.057E+01 3.045E-01  0.0137 0.32339 9.988E+00
 7.000E+00 3.909E+01 9.367E+00 0.000E+00 0.000E+00 5.298E-05 5.298E-05 9.367E+00 4.052E-01  0.0161 0.34700 8.767E+00
 8.000E+00 4.189E+01 8.442E+00 0.000E+00 0.000E+00 5.345E-05 5.345E-05 8.442E+00 5.178E-01  0.0185 0.36854 7.841E+00
 9.000E+00 4.453E+01 7.711E+00 0.000E+00 0.000E+00 5.392E-05 5.392E-05 7.711E+00 6.419E-01  0.0209 0.38836 7.116E+00
 1.000E+01 4.704E+01 7.117E+00 0.000E+00 0.000E+00 5.439E-05 5.439E-05 7.117E+00 7.771E-01  0.0233 0.40675 6.531E+00
 1.200E+01 5.177E+01 6.211E+00 0.000E+00 0.000E+00 5.533E-05 5.533E-05 6.211E+00 1.079E+00  0.0282 0.43998 5.645E+00
 1.400E+01 5.616E+01 5.550E+00 0.000E+00 0.000E+00 5.628E-05 5.628E-05 5.551E+00 1.420E+00  0.0332 0.46937 5.007E+00
 1.700E+01 6.230E+01 4.839E+00 0.000E+00 0.000E+00 5.769E-05 5.769E-05 4.839E+00 2.001E+00  0.0409 0.50792 4.325E+00
 2.000E+01 6.802E+01 4.332E+00 0.000E+00 0.000E+00 5.910E-05 5.910E-05 4.332E+00 2.658E+00  0.0487 0.54129 3.844E+00
 2.500E+01 7.686E+01 3.750E+00 0.000E+00 0.000E+00 6.145E-05 6.145E-05 3.750E+00 3.904E+00  0.0622 0.58827 3.294E+00
 3.000E+01 8.509E+01 3.357E+00 0.000E+00 0.000E+00 6.380E-05 6.380E-05 3.357E+00 5.317E+00  0.0762 0.62720 2.926E+00
 3.500E+01 9.285E+01 3.075E+00 0.000E+00 0.000E+00 6.615E-05 6.615E-05 3.075E+00 6.876E+00  0.0908 0.66011 2.663E+00
 4.000E+01 1.003E+02 2.862E+00 0.000E+00 0.000E+00 6.850E-05 6.850E-05 2.862E+00 8.564E+00  0.1091 0.68834 2.465E+00
 4.500E+01 1.074E+02 2.696E+00 0.000E+00 0.000E+00 7.085E-05 7.085E-05 2.696E+00 1.037E+01  0.1334 0.71286 2.311E+00
 5.000E+01 1.143E+02 2.564E+00 3.987E-07 0.000E+00 7.321E-05 7.360E-05 2.564E+00 1.227E+01  0.1577 0.73434 2.188E+00
 5.500E+01 1.210E+02 2.456E+00 8.883E-07 0.000E+00 7.556E-05 7.645E-05 2.456E+00 1.426E+01  0.1819 0.75332 2.087E+00
 6.000E+01 1.276E+02 2.367E+00 1.392E-06 0.000E+00 7.791E-05 7.930E-05 2.367E+00 1.634E+01  0.2059 0.77019 2.004E+00
 7.000E+01 1.403E+02 2.230E+00 2.443E-06 0.000E+00 8.261E-05 8.505E-05 2.230E+00 2.070E+01  0.2531 0.79887 1.875E+00
 8.000E+01 1.527E+02 2.129E+00 3.547E-06 0.000E+00 8.732E-05 9.086E-05 2.129E+00 2.529E+01  0.2989 0.82227 1.780E+00
 9.000E+01 1.647E+02 2.053E+00 4.701E-06 0.000E+00 9.202E-05 9.672E-05 2.053E+00 3.008E+01  0.3434 0.84166 1.707E+00
 1.000E+02 1.764E+02 1.994E+00 5.904E-06 0.000E+00 9.672E-05 1.026E-04 1.994E+00 3.502E+01  0.3866 0.85794 1.650E+00
 1.200E+02 1.994E+02 1.911E+00 8.443E-06 0.000E+00 1.061E-04 1.146E-04 1.911E+00 4.528E+01  0.4691 0.88361 1.567E+00
 1.400E+02 2.218E+02 1.857E+00 1.115E-05 0.000E+00 1.155E-04 1.267E-04 1.857E+00 5.591E+01  0.5472 0.90278 1.511E+00
 1.700E+02 2.546E+02 1.807E+00 1.549E-05 0.000E+00 1.296E-04 1.451E-04 1.807E+00 7.231E+01  0.6568 0.92363 1.455E+00
 2.000E+02 2.868E+02 1.778E+00 2.014E-05 0.000E+00 1.438E-04 1.639E-04 1.779E+00 8.905E+01  0.7589 0.93835 1.419E+00
 2.500E+02 3.396E+02 1.756E+00 2.849E-05 0.000E+00 1.673E-04 1.958E-04 1.756E+00 1.174E+02  0.9151 0.95485 1.384E+00
 3.000E+02 3.917E+02 1.749E+00 3.751E-05 0.000E+00 1.908E-04 2.283E-04 1.749E+00 1.459E+02  1.0571 0.96548 1.364E+00
 3.134E+02 4.055E+02 1.749E+00 4.710E-05 0.000E+00 2.143E-04 2.614E-04 1.750E+00  Minimum ionization
 3.500E+02 4.432E+02 1.750E+00 4.710E-05 0.000E+00 2.143E-04 2.614E-04 1.750E+00 1.745E+02  1.1875 0.97274 1.352E+00
 4.000E+02 4.945E+02 1.755E+00 5.721E-05 0.000E+00 2.378E-04 2.950E-04 1.756E+00 2.030E+02  1.3084 0.97793 1.344E+00
 4.500E+02 5.455E+02 1.763E+00 6.779E-05 0.000E+00 2.613E-04 3.291E-04 1.763E+00 2.315E+02  1.4211 0.98176 1.340E+00
 5.000E+02 5.964E+02 1.771E+00 7.878E-05 0.000E+00 2.848E-04 3.636E-04 1.771E+00 2.598E+02  1.5269 0.98467 1.337E+00
 5.500E+02 6.471E+02 1.780E+00 9.017E-05 0.000E+00 3.084E-04 3.985E-04 1.780E+00 2.879E+02  1.6265 0.98693 1.336E+00
 6.000E+02 6.977E+02 1.789E+00 1.019E-04 0.000E+00 3.319E-04 4.338E-04 1.789E+00 3.159E+02  1.7207 0.98873 1.335E+00
 7.000E+02 7.987E+02 1.807E+00 1.264E-04 0.000E+00 3.789E-04 5.053E-04 1.807E+00 3.715E+02  1.8953 0.99136 1.335E+00
 8.000E+02 8.995E+02 1.824E+00 1.520E-04 0.000E+00 4.259E-04 5.779E-04 1.825E+00 4.266E+02  2.0543 0.99317 1.336E+00
 9.000E+02 1.000E+03 1.840E+00 1.787E-04 0.000E+00 4.730E-04 6.516E-04 1.841E+00 4.812E+02  2.2005 0.99447 1.338E+00
 1.000E+03 1.101E+03 1.855E+00 2.063E-04 5.414E-06 5.200E-04 7.317E-04 1.856E+00 5.353E+02  2.3359 0.99542 1.339E+00
 1.200E+03 1.301E+03 1.882E+00 2.640E-04 4.302E-05 6.141E-04 9.210E-04 1.883E+00 6.422E+02  2.5801 0.99672 1.343E+00
 1.400E+03 1.502E+03 1.906E+00 3.245E-04 8.582E-05 7.081E-04 1.118E-03 1.907E+00 7.478E+02  2.7963 0.99753 1.346E+00
 1.700E+03 1.803E+03 1.936E+00 4.200E-04 1.583E-04 8.492E-04 1.427E-03 1.937E+00 9.038E+02  3.0805 0.99829 1.350E+00
 2.000E+03 2.103E+03 1.961E+00 5.202E-04 2.392E-04 9.935E-04 1.753E-03 1.963E+00 1.058E+03  3.3281 0.99874 1.353E+00
 2.500E+03 2.604E+03 1.996E+00 6.958E-04 3.896E-04 1.246E-03 2.331E-03 1.999E+00 1.310E+03  3.6817 0.99918 1.358E+00
 3.000E+03 3.104E+03 2.025E+00 8.805E-04 5.564E-04 1.501E-03 2.937E-03 2.028E+00 1.558E+03  3.9814 0.99942 1.361E+00
 3.500E+03 3.604E+03 2.049E+00 1.073E-03 7.368E-04 1.758E-03 3.567E-03 2.052E+00 1.803E+03  4.2419 0.99957 1.363E+00
 4.000E+03 4.104E+03 2.069E+00 1.272E-03 9.289E-04 2.017E-03 4.218E-03 2.073E+00 2.046E+03  4.4725 0.99967 1.365E+00
 4.500E+03 4.604E+03 2.086E+00 1.476E-03 1.131E-03 2.278E-03 4.886E-03 2.091E+00 2.286E+03  4.6794 0.99974 1.367E+00
 5.000E+03 5.105E+03 2.102E+00 1.687E-03 1.346E-03 2.536E-03 5.568E-03 2.108E+00 2.524E+03  4.8672 0.99979 1.368E+00
 5.500E+03 5.605E+03 2.116E+00 1.906E-03 1.578E-03 2.773E-03 6.257E-03 2.122E+00 2.760E+03  5.0390 0.99982 1.369E+00
 6.000E+03 6.105E+03 2.129E+00 2.129E-03 1.820E-03 3.009E-03 6.958E-03 2.136E+00 2.995E+03  5.1975 0.99985 1.370E+00
 7.000E+03 7.105E+03 2.150E+00 2.589E-03 2.326E-03 3.479E-03 8.393E-03 2.159E+00 3.461E+03  5.4818 0.99989 1.372E+00
 8.000E+03 8.105E+03 2.169E+00 3.063E-03 2.860E-03 3.945E-03 9.868E-03 2.179E+00 3.922E+03  5.7314 0.99992 1.373E+00
 9.000E+03 9.105E+03 2.185E+00 3.549E-03 3.417E-03 4.409E-03 1.138E-02 2.197E+00 4.379E+03  5.9540 0.99993 1.373E+00
