#Incident particle is a   Muon with M =   105.65839 MeV
#Index =   26:  iron (Fe)
#    Absorber with Z =  26,  A = 55.845(2), density = 7.874
#Sternheimer coef:  a     k=m_s   x_0    x_1    I[eV]   Cbar  delta0
#                0.1468  2.9632 -0.0012  3.1531  286.0  4.2911 0.12
#(Restricted energy loss for Tcut = 0.05 MeV
#Table written with (1X, 1P9E10.3,0PF8.4,f8.5,1pE10.3)          post-Born included in pair prod
#*** Results below 10 MeV are not dependable ***
#     T         p     Ionization  brems     pair     photonuc  Radloss    dE/dx   CSDA Range  delta   beta   dE/dx_R
#   [MeV]    [MeV/c]  -----------------------[MeV cm^2/g]------------------------  [g/cm^2]                [MeV cm^2/g]
 1.000E+00 1.457E+01 2.326E+00 0.000E+00 0.000E+00 4.387E-05 4.387E-05 4.652E+00 3.071E-03  0.0023 0.13661 3.110E+01
 1.200E+00 1.597E+01 2.720E+01 0.000E+00 0.000E+00 4.395E-05 4.395E-05 2.720E+01 9.966E-03  0.0028 0.14944 2.720E+01
 1.400E+00 1.726E+01 2.426E+01 0.000E+00 0.000E+00 4.403E-05 4.403E-05 2.426E+01 1.777E-02  0.0032 0.16119 2.426E+01
 1.700E+00 1.903E+01 2.099E+01 0.000E+00 0.000E+00 4.416E-05 4.416E-05 2.099E+01 3.110E-02  0.0039 0.17725 2.099E+01
 2.000E+00 2.066E+01 1.857E+01 0.000E+00 0.000E+00 4.428E-05 4.428E-05 1.857E+01 4.633E-02  0.0046 0.19186 1.857E+01
 2.500E+00 2.312E+01 1.568E+01 0.000E+00 0.000E+00 4.449E-05 4.449E-05 1.568E+01 7.577E-02  0.0058 0.21376 1.568E+01
 3.000E+00 2.536E+01 1.364E+01 0.000E+00 0.000E+00 4.469E-05 4.469E-05 1.364E+01 1.101E-01  0.0069 0.23336 1.345E+01
 3.500E+00 2.742E+01 1.212E+01 0.000E+00 0.000E+00 4.490E-05 4.490E-05 1.212E+01 1.490E-01  0.0081 0.25120 1.179E+01
 4.000E+00 2.935E+01 1.095E+01 0.000E+00 0.000E+00 4.510E-05 4.510E-05 1.095E+01 1.925E-01  0.0093 0.26763 1.053E+01
 4.500E+00 3.116E+01 1.000E+01 0.000E+00 0.000E+00 4.531E-05 4.531E-05 1.001E+01 2.403E-01  0.0105 0.28290 9.531E+00
 5.000E+00 3.289E+01 9.232E+00 0.000E+00 0.000E+00 4.551E-05 4.551E-05 9.232E+00 2.924E-01  0.0117 0.29720 8.722E+00
 5.500E+00 3.453E+01 8.586E+00 0.000E+00 0.000E+00 4.572E-05 4.572E-05 8.586E+00 3.486E-01  0.0129 0.31066 8.054E+00
 6.000E+00 3.611E+01 8.038E+00 0.000E+00 0.000E+00 4.593E-05 4.593E-05 8.038E+00 4.088E-01  0.0141 0.32339 7.491E+00
 7.000E+00 3.909E+01 7.156E+00 0.000E+00 0.000E+00 4.634E-05 4.634E-05 7.156E+00 5.410E-01  0.0165 0.34700 6.597E+00
 8.000E+00 4.189E+01 6.476E+00 0.000E+00 0.000E+00 4.675E-05 4.675E-05 6.476E+00 6.881E-01  0.0190 0.36854 5.916E+00
 9.000E+00 4.453E+01 5.935E+00 0.000E+00 0.000E+00 4.716E-05 4.716E-05 5.935E+00 8.496E-01  0.0214 0.38836 5.380E+00
 1.000E+01 4.704E+01 5.494E+00 0.000E+00 0.000E+00 4.757E-05 4.757E-05 5.494E+00 1.025E+00  0.0239 0.40675 4.947E+00
 1.200E+01 5.177E+01 4.817E+00 0.000E+00 0.000E+00 4.839E-05 4.839E-05 4.817E+00 1.415E+00  0.0290 0.43998 4.290E+00
 1.400E+01 5.616E+01 4.321E+00 0.000E+00 0.000E+00 4.922E-05 4.922E-05 4.321E+00 1.854E+00  0.0341 0.46937 3.814E+00
 1.700E+01 6.230E+01 3.783E+00 0.000E+00 0.000E+00 5.045E-05 5.045E-05 3.783E+00 2.599E+00  0.0420 0.50792 3.304E+00
 2.000E+01 6.802E+01 3.399E+00 0.000E+00 0.000E+00 5.168E-05 5.168E-05 3.399E+00 3.437E+00  0.0500 0.54129 2.943E+00
 2.500E+01 7.686E+01 2.955E+00 0.000E+00 0.000E+00 5.374E-05 5.374E-05 2.955E+00 5.021E+00  0.0639 0.58827 2.530E+00
 3.000E+01 8.509E+01 2.654E+00 0.000E+00 0.000E+00 5.580E-05 5.580E-05 2.654E+00 6.812E+00  0.0782 0.62720 2.252E+00
 3.500E+01 9.285E+01 2.437E+00 0.000E+00 0.000E+00 5.785E-05 5.785E-05 2.437E+00 8.781E+00  0.0932 0.66011 2.053E+00
 4.000E+01 1.003E+02 2.274E+00 0.000E+00 0.000E+00 5.991E-05 5.991E-05 2.274E+00 1.091E+01  0.1087 0.68834 1.904E+00
 4.500E+01 1.074E+02 2.147E+00 0.000E+00 0.000E+00 6.197E-05 6.197E-05 2.147E+00 1.317E+01  0.1237 0.71286 1.788E+00
 5.000E+01 1.143E+02 2.047E+00 0.000E+00 0.000E+00 6.402E-05 6.402E-05 2.047E+00 1.556E+01  0.1376 0.73434 1.696E+00
 5.500E+01 1.210E+02 1.965E+00 0.000E+00 0.000E+00 6.608E-05 6.608E-05 1.965E+00 1.805E+01  0.1519 0.75332 1.621E+00
 6.000E+01 1.276E+02 1.897E+00 7.606E-07 0.000E+00 6.814E-05 6.890E-05 1.897E+00 2.065E+01  0.1666 0.77019 1.559E+00
 7.000E+01 1.403E+02 1.793E+00 4.224E-06 0.000E+00 7.225E-05 7.647E-05 1.793E+00 2.608E+01  0.1964 0.79887 1.462E+00
 8.000E+01 1.527E+02 1.717E+00 7.876E-06 0.000E+00 7.636E-05 8.424E-05 1.717E+00 3.178E+01  0.2262 0.82227 1.391E+00
 9.000E+01 1.647E+02 1.660E+00 1.171E-05 0.000E+00 8.047E-05 9.218E-05 1.660E+00 3.771E+01  0.2559 0.84166 1.337E+00
 1.000E+02 1.764E+02 1.616E+00 1.571E-05 0.000E+00 8.459E-05 1.003E-04 1.616E+00 4.382E+01  0.2852 0.85794 1.295E+00
 1.200E+02 1.994E+02 1.555E+00 2.418E-05 0.000E+00 9.281E-05 1.170E-04 1.555E+00 5.646E+01  0.3425 0.88361 1.234E+00
 1.400E+02 2.218E+02 1.516E+00 3.325E-05 0.000E+00 1.010E-04 1.343E-04 1.516E+00 6.950E+01  0.3977 0.90278 1.193E+00
 1.700E+02 2.546E+02 1.481E+00 4.785E-05 0.000E+00 1.134E-04 1.612E-04 1.481E+00 8.954E+01  0.4768 0.92363 1.153E+00
 2.000E+02 2.868E+02 1.463E+00 6.354E-05 0.000E+00 1.257E-04 1.893E-04 1.463E+00 1.099E+02  0.5516 0.93835 1.129E+00
 2.500E+02 3.396E+02 1.452E+00 9.182E-05 0.000E+00 1.463E-04 2.381E-04 1.452E+00 1.443E+02  0.6680 0.95485 1.105E+00
 2.736E+02 3.642E+02 1.451E+00 1.224E-04 0.000E+00 1.668E-04 2.893E-04 1.453E+00  Minimum ionization
 3.000E+02 3.917E+02 1.452E+00 1.224E-04 0.000E+00 1.668E-04 2.893E-04 1.453E+00 1.787E+02  0.7754 0.96548 1.093E+00
 3.500E+02 4.432E+02 1.458E+00 1.551E-04 0.000E+00 1.874E-04 3.425E-04 1.459E+00 2.131E+02  0.8752 0.97274 1.087E+00
 4.000E+02 4.945E+02 1.467E+00 1.896E-04 0.000E+00 2.080E-04 3.976E-04 1.467E+00 2.472E+02  0.9685 0.97793 1.084E+00
 4.500E+02 5.455E+02 1.477E+00 2.257E-04 0.000E+00 2.285E-04 4.543E-04 1.477E+00 2.812E+02  1.0561 0.98176 1.083E+00
 5.000E+02 5.964E+02 1.487E+00 2.634E-04 0.000E+00 2.491E-04 5.125E-04 1.488E+00 3.149E+02  1.1388 0.98467 1.083E+00
 5.500E+02 6.471E+02 1.498E+00 3.024E-04 0.000E+00 2.697E-04 5.720E-04 1.499E+00 3.484E+02  1.2172 0.98693 1.084E+00
 6.000E+02 6.977E+02 1.509E+00 3.426E-04 0.000E+00 2.902E-04 6.329E-04 1.509E+00 3.817E+02  1.2917 0.98873 1.086E+00
 7.000E+02 7.987E+02 1.529E+00 4.266E-04 0.000E+00 3.314E-04 7.580E-04 1.529E+00 4.475E+02  1.4306 0.99136 1.089E+00
 8.000E+02 8.995E+02 1.548E+00 5.147E-04 0.000E+00 3.725E-04 8.872E-04 1.548E+00 5.124E+02  1.5581 0.99317 1.093E+00
 9.000E+02 1.000E+03 1.565E+00 6.065E-04 0.000E+00 4.136E-04 1.020E-03 1.566E+00 5.767E+02  1.6760 0.99447 1.097E+00
 1.000E+03 1.101E+03 1.581E+00 7.016E-04 1.185E-05 4.548E-04 1.168E-03 1.582E+00 6.402E+02  1.7857 0.99542 1.100E+00
 1.200E+03 1.301E+03 1.610E+00 9.006E-04 1.533E-04 5.370E-04 1.591E-03 1.612E+00 7.654E+02  1.9851 0.99672 1.107E+00
 1.400E+03 1.502E+03 1.635E+00 1.110E-03 3.144E-04 6.193E-04 2.043E-03 1.637E+00 8.885E+02  2.1629 0.99753 1.113E+00
 1.700E+03 1.803E+03 1.667E+00 1.440E-03 5.876E-04 7.427E-04 2.770E-03 1.670E+00 1.070E+03  2.3985 0.99829 1.121E+00
 2.000E+03 2.103E+03 1.694E+00 1.786E-03 8.929E-04 8.693E-04 3.549E-03 1.697E+00 1.248E+03  2.6055 0.99874 1.127E+00
 2.500E+03 2.604E+03 1.730E+00 2.395E-03 1.461E-03 1.093E-03 4.948E-03 1.735E+00 1.539E+03  2.9035 0.99918 1.135E+00
 3.000E+03 3.104E+03 1.760E+00 3.035E-03 2.091E-03 1.319E-03 6.445E-03 1.766E+00 1.825E+03  3.1584 0.99942 1.141E+00
 3.500E+03 3.604E+03 1.785E+00 3.703E-03 2.773E-03 1.547E-03 8.023E-03 1.793E+00 2.106E+03  3.3815 0.99957 1.146E+00
 4.000E+03 4.104E+03 1.806E+00 4.393E-03 3.500E-03 1.778E-03 9.671E-03 1.816E+00 2.383E+03  3.5803 0.99967 1.151E+00
 4.500E+03 4.604E+03 1.824E+00 5.104E-03 4.266E-03 2.010E-03 1.138E-02 1.836E+00 2.657E+03  3.7596 0.99974 1.154E+00
 5.000E+03 5.105E+03 1.841E+00 5.835E-03 5.069E-03 2.240E-03 1.314E-02 1.854E+00 2.928E+03  3.9231 0.99979 1.157E+00
 5.500E+03 5.605E+03 1.855E+00 6.593E-03 5.914E-03 2.452E-03 1.496E-02 1.870E+00 3.196E+03  4.0735 0.99982 1.159E+00
 6.000E+03 6.105E+03 1.868E+00 7.367E-03 6.788E-03 2.663E-03 1.682E-02 1.885E+00 3.462E+03  4.2127 0.99985 1.162E+00
 7.000E+03 7.105E+03 1.891E+00 8.957E-03 8.617E-03 3.084E-03 2.066E-02 1.912E+00 3.989E+03  4.4639 0.99989 1.165E+00
 8.000E+03 8.105E+03 1.911E+00 1.060E-02 1.054E-02 3.503E-03 2.464E-02 1.935E+00 4.509E+03  4.6858 0.99992 1.168E+00
 9.000E+03 9.105E+03 1.927E+00 1.228E-02 1.255E-02 3.920E-03 2.875E-02 1.956E+00 5.023E+03  4.8848 0.99993 1.171E+00
