#Incident particle is a   Muon with M =   105.65839 MeV
#Index =   82:  lead (Pb)
#    Absorber with Z =  82,  A = 207.2(1), density = 11.350
#Sternheimer coef:  a     k=m_s   x_0    x_1    I[eV]   Cbar  delta0
#                0.0936  3.1608  0.3776  3.8073  823.0  6.2018 0.14
#(Restricted energy loss for Tcut = 0.05 MeV
#Table written with (1X, 1P9E10.3,0PF8.4,f8.5,1pE10.3)          post-Born included in pair prod
#*** Results below 10 MeV are not dependable ***
#     T         p     Ionization  brems     pair     photonuc  Radloss    dE/dx   CSDA Range  delta   beta   dE/dx_R
#   [MeV]    [MeV/c]  -----------------------[MeV cm^2/g]------------------------  [g/cm^2]                [MeV cm^2/g]
 1.000E+00 1.457E+01 1.890E+00 0.000E+00 0.000E+00 3.871E-05 3.871E-05 3.782E+00 5.269E-03  0.0005 0.13661 1.897E+01
 1.200E+00 1.597E+01 1.672E+01 0.000E+00 0.000E+00 3.878E-05 3.878E-05 1.672E+01 1.652E-02  0.0006 0.14944 1.671E+01
 1.400E+00 1.726E+01 1.495E+01 0.000E+00 0.000E+00 3.885E-05 3.885E-05 1.495E+01 2.919E-02  0.0007 0.16119 1.495E+01
 1.700E+00 1.903E+01 1.300E+01 0.000E+00 0.000E+00 3.896E-05 3.896E-05 1.300E+01 5.079E-02  0.0008 0.17725 1.299E+01
 2.000E+00 2.066E+01 1.158E+01 0.000E+00 0.000E+00 3.907E-05 3.907E-05 1.158E+01 7.530E-02  0.0009 0.19186 1.158E+01
 2.500E+00 2.312E+01 9.919E+00 0.000E+00 0.000E+00 3.925E-05 3.925E-05 9.919E+00 1.221E-01  0.0012 0.21376 9.918E+00
 3.000E+00 2.536E+01 8.749E+00 0.000E+00 0.000E+00 3.943E-05 3.943E-05 8.749E+00 1.760E-01  0.0014 0.23336 8.586E+00
 3.500E+00 2.742E+01 7.870E+00 0.000E+00 0.000E+00 3.961E-05 3.961E-05 7.870E+00 2.363E-01  0.0017 0.25120 7.588E+00
 4.000E+00 2.935E+01 7.180E+00 0.000E+00 0.000E+00 3.980E-05 3.980E-05 7.180E+00 3.029E-01  0.0019 0.26763 6.823E+00
 4.500E+00 3.116E+01 6.620E+00 0.000E+00 0.000E+00 3.998E-05 3.998E-05 6.620E+00 3.755E-01  0.0021 0.28290 6.217E+00
 5.000E+00 3.289E+01 6.156E+00 0.000E+00 0.000E+00 4.016E-05 4.016E-05 6.156E+00 4.539E-01  0.0024 0.29720 5.723E+00
 5.500E+00 3.453E+01 5.764E+00 0.000E+00 0.000E+00 4.034E-05 4.034E-05 5.764E+00 5.379E-01  0.0026 0.31066 5.312E+00
 6.000E+00 3.611E+01 5.428E+00 0.000E+00 0.000E+00 4.052E-05 4.052E-05 5.428E+00 6.273E-01  0.0029 0.32339 4.964E+00
 7.000E+00 3.909E+01 4.880E+00 0.000E+00 0.000E+00 4.088E-05 4.088E-05 4.880E+00 8.220E-01  0.0034 0.34700 4.405E+00
 8.000E+00 4.189E+01 4.452E+00 0.000E+00 0.000E+00 4.125E-05 4.125E-05 4.452E+00 1.037E+00  0.0039 0.36854 3.976E+00
 9.000E+00 4.453E+01 4.107E+00 0.000E+00 0.000E+00 4.161E-05 4.161E-05 4.107E+00 1.271E+00  0.0044 0.38836 3.636E+00
 1.000E+01 4.704E+01 3.823E+00 0.000E+00 0.000E+00 4.197E-05 4.197E-05 3.823E+00 1.524E+00  0.0049 0.40675 3.358E+00
 1.200E+01 5.177E+01 3.382E+00 0.000E+00 0.000E+00 4.270E-05 4.270E-05 3.382E+00 2.081E+00  0.0059 0.43998 2.934E+00
 1.400E+01 5.616E+01 3.054E+00 0.000E+00 0.000E+00 4.342E-05 4.342E-05 3.054E+00 2.705E+00  0.0070 0.46937 2.624E+00
 1.700E+01 6.230E+01 2.695E+00 0.000E+00 0.000E+00 4.451E-05 4.451E-05 2.695E+00 3.754E+00  0.0086 0.50792 2.288E+00
 2.000E+01 6.802E+01 2.436E+00 0.000E+00 0.000E+00 4.560E-05 4.560E-05 2.436E+00 4.927E+00  0.0102 0.54129 2.049E+00
 2.500E+01 7.686E+01 2.134E+00 0.000E+00 0.000E+00 4.742E-05 4.742E-05 2.134E+00 7.128E+00  0.0130 0.58827 1.773E+00
 3.000E+01 8.509E+01 1.928E+00 0.000E+00 0.000E+00 4.923E-05 4.923E-05 1.928E+00 9.600E+00  0.0160 0.62720 1.586E+00
 3.500E+01 9.285E+01 1.779E+00 0.000E+00 0.000E+00 5.104E-05 5.104E-05 1.779E+00 1.230E+01  0.0190 0.66011 1.452E+00
 4.000E+01 1.003E+02 1.666E+00 0.000E+00 0.000E+00 5.286E-05 5.286E-05 1.666E+00 1.521E+01  0.0222 0.68834 1.352E+00
 4.500E+01 1.074E+02 1.579E+00 0.000E+00 0.000E+00 5.467E-05 5.467E-05 1.579E+00 1.830E+01  0.0254 0.71286 1.273E+00
 5.000E+01 1.143E+02 1.509E+00 0.000E+00 0.000E+00 5.649E-05 5.649E-05 1.509E+00 2.154E+01  0.0288 0.73434 1.211E+00
 5.500E+01 1.210E+02 1.453E+00 0.000E+00 0.000E+00 5.830E-05 5.830E-05 1.453E+00 2.492E+01  0.0323 0.75332 1.160E+00
 6.000E+01 1.276E+02 1.406E+00 0.000E+00 0.000E+00 6.012E-05 6.012E-05 1.406E+00 2.842E+01  0.0359 0.77019 1.118E+00
 7.000E+01 1.403E+02 1.334E+00 0.000E+00 0.000E+00 6.375E-05 6.375E-05 1.335E+00 3.573E+01  0.0434 0.79887 1.054E+00
 8.000E+01 1.527E+02 1.283E+00 0.000E+00 0.000E+00 6.738E-05 6.738E-05 1.283E+00 4.338E+01  0.0514 0.82227 1.006E+00
 9.000E+01 1.647E+02 1.244E+00 6.397E-06 0.000E+00 7.100E-05 7.740E-05 1.244E+00 5.130E+01  0.0598 0.84166 9.703E-01
 1.000E+02 1.764E+02 1.215E+00 1.516E-05 0.000E+00 7.463E-05 8.979E-05 1.215E+00 5.943E+01  0.0686 0.85794 9.426E-01
 1.200E+02 1.994E+02 1.176E+00 3.385E-05 0.000E+00 8.189E-05 1.157E-04 1.176E+00 7.619E+01  0.0876 0.88361 9.032E-01
 1.400E+02 2.218E+02 1.151E+00 5.401E-05 0.000E+00 8.915E-05 1.432E-04 1.152E+00 9.339E+01  0.1084 0.90278 8.774E-01
 1.700E+02 2.546E+02 1.132E+00 8.673E-05 0.000E+00 1.000E-04 1.868E-04 1.132E+00 1.197E+02  0.1420 0.92363 8.531E-01
 2.000E+02 2.868E+02 1.124E+00 1.221E-04 0.000E+00 1.109E-04 2.331E-04 1.124E+00 1.463E+02  0.1649 0.93835 8.398E-01
 # 2.261E+02 3.145E+02 1.122E+00 1.864E-04 0.000E+00 1.291E-04 3.155E-04 1.124E+00  Minimum ionization
 2.500E+02 3.396E+02 1.123E+00 1.864E-04 0.000E+00 1.291E-04 3.155E-04 1.124E+00 1.908E+02  0.2094 0.95485 8.287E-01
 3.000E+02 3.917E+02 1.130E+00 2.565E-04 0.000E+00 1.472E-04 4.037E-04 1.131E+00 2.352E+02  0.2577 0.96548 8.248E-01
 3.500E+02 4.432E+02 1.140E+00 3.317E-04 0.000E+00 1.654E-04 4.971E-04 1.141E+00 2.792E+02  0.3074 0.97274 8.245E-01
 4.000E+02 4.945E+02 1.151E+00 4.114E-04 0.000E+00 1.835E-04 5.949E-04 1.152E+00 3.228E+02  0.3573 0.97793 8.259E-01
 4.500E+02 5.455E+02 1.163E+00 4.952E-04 0.000E+00 2.016E-04 6.968E-04 1.164E+00 3.660E+02  0.4066 0.98176 8.283E-01
 5.000E+02 5.964E+02 1.175E+00 5.827E-04 0.000E+00 2.198E-04 8.024E-04 1.175E+00 4.088E+02  0.4552 0.98467 8.313E-01
 5.500E+02 6.471E+02 1.186E+00 6.735E-04 0.000E+00 2.379E-04 9.115E-04 1.187E+00 4.511E+02  0.5027 0.98693 8.344E-01
 6.000E+02 6.977E+02 1.197E+00 7.675E-04 0.000E+00 2.561E-04 1.024E-03 1.198E+00 4.930E+02  0.5491 0.98873 8.377E-01
 7.000E+02 7.987E+02 1.218E+00 9.641E-04 0.000E+00 2.924E-04 1.257E-03 1.219E+00 5.758E+02  0.6386 0.99136 8.441E-01
 8.000E+02 8.995E+02 1.237E+00 1.171E-03 0.000E+00 3.287E-04 1.500E-03 1.238E+00 6.572E+02  0.7235 0.99317 8.503E-01
 9.000E+02 1.000E+03 1.254E+00 1.387E-03 0.000E+00 3.650E-04 1.752E-03 1.256E+00 7.374E+02  0.8042 0.99447 8.560E-01
 1.000E+03 1.101E+03 1.270E+00 1.611E-03 0.000E+00 4.012E-04 2.012E-03 1.272E+00 8.165E+02  0.8810 0.99542 8.613E-01
 1.200E+03 1.301E+03 1.298E+00 2.081E-03 0.000E+00 4.738E-04 2.555E-03 1.301E+00 9.719E+02  1.0241 0.99672 8.706E-01
 1.400E+03 1.502E+03 1.322E+00 2.576E-03 0.000E+00 5.464E-04 3.123E-03 1.325E+00 1.124E+03  1.1550 0.99753 8.786E-01
 1.700E+03 1.803E+03 1.353E+00 3.359E-03 4.357E-04 6.553E-04 4.450E-03 1.357E+00 1.348E+03  1.3329 0.99829 8.886E-01
 2.000E+03 2.103E+03 1.379E+00 4.184E-03 1.042E-03 7.670E-04 5.993E-03 1.385E+00 1.567E+03  1.4925 0.99874 8.968E-01
 2.500E+03 2.604E+03 1.414E+00 5.634E-03 2.206E-03 9.640E-04 8.804E-03 1.423E+00 1.923E+03  1.7273 0.99918 9.077E-01
 3.000E+03 3.104E+03 1.442E+00 7.163E-03 3.529E-03 1.164E-03 1.186E-02 1.454E+00 2.270E+03  1.9321 0.99942 9.162E-01
 3.500E+03 3.604E+03 1.466E+00 8.759E-03 4.986E-03 1.365E-03 1.511E-02 1.481E+00 2.611E+03  2.1141 0.99957 9.230E-01
 4.000E+03 4.104E+03 1.486E+00 1.041E-02 6.557E-03 1.569E-03 1.854E-02 1.504E+00 2.946E+03  2.2781 0.99967 9.286E-01
 4.500E+03 4.604E+03 1.503E+00 1.212E-02 8.229E-03 1.774E-03 2.212E-02 1.525E+00 3.276E+03  2.4274 0.99974 9.334E-01
 5.000E+03 5.105E+03 1.519E+00 1.387E-02 9.996E-03 1.977E-03 2.584E-02 1.545E+00 3.602E+03  2.5647 0.99979 9.375E-01
 5.500E+03 5.605E+03 1.533E+00 1.569E-02 1.186E-02 2.165E-03 2.972E-02 1.562E+00 3.923E+03  2.6918 0.99982 9.411E-01
 6.000E+03 6.105E+03 1.545E+00 1.756E-02 1.380E-02 2.352E-03 3.371E-02 1.579E+00 4.242E+03  2.8101 0.99985 9.442E-01
 7.000E+03 7.105E+03 1.567E+00 2.139E-02 1.789E-02 2.726E-03 4.201E-02 1.609E+00 4.869E+03  3.0252 0.99989 9.495E-01
 8.000E+03 8.105E+03 1.585E+00 2.535E-02 2.222E-02 3.098E-03 5.066E-02 1.636E+00 5.486E+03  3.2169 0.99992 9.538E-01
 9.000E+03 9.105E+03 1.601E+00 2.941E-02 2.675E-02 3.468E-03 5.964E-02 1.660E+00 6.092E+03  3.3900 0.99993 9.574E-01
